{
   "name": "Z36",
   "thicknesses": [
      0.0,
      10.336,
      33.793,
      101.454,
      150.418,
      83.583,
      139.449,
      79.537,
      136.718,
      78.007,
      135.54,
      77.234,
      134.96,
      76.802,
      134.65,
      76.553,
      134.479,
      76.422,
      134.388,
      76.38,
      134.353,
      76.42,
      134.368,
      76.546,
      134.451,
      76.773,
      134.646,
      77.151,
      135.047,
      77.79,
      135.876,
      78.967,
      137.751,
      81.532,
      143.186,
      83.647,
      70.966
   ],
   "layers": [
      "BK7",
      "TiO2",
      "SiO2",
      "TiO2",
      "SiO2",
      "TiO2",
      "SiO2",
      "TiO2",
      "SiO2",
      "TiO2",
      "SiO2",
      "TiO2",
      "SiO2",
      "TiO2",
      "SiO2",
      "TiO2",
      "SiO2",
      "TiO2",
      "SiO2",
      "TiO2",
      "SiO2",
      "TiO2",
      "SiO2",
      "TiO2",
      "SiO2",
      "TiO2",
      "SiO2",
      "TiO2",
      "SiO2",
      "TiO2",
      "SiO2",
      "TiO2",
      "SiO2",
      "TiO2",
      "SiO2",
      "TiO2",
      "SiO2"
   ],
   "mat_inf": {
      "BK7": {
         "Table": {
            "wavelength": [
               312.6,
               332.9313,
               353.2626,
               373.5939,
               393.9253,
               414.2566,
               434.5879,
               454.9192,
               475.2505,
               495.5818,
               515.9131,
               536.2444,
               556.5758,
               576.9071,
               597.2384,
               617.5697,
               637.901,
               658.2323,
               678.5636,
               698.8949,
               719.2263,
               739.5576,
               759.8889,
               780.2202,
               800.5515,
               820.8828,
               841.2141,
               861.5455,
               881.8768,
               902.2081,
               922.5394,
               942.8707,
               963.202,
               983.5333,
               1003.8646,
               1024.196,
               1044.5273,
               1064.8586,
               1085.1899,
               1105.5212,
               1125.8525,
               1146.1838,
               1166.5152,
               1186.8465,
               1207.1778,
               1227.5091,
               1247.8404,
               1268.1717,
               1288.503,
               1308.8343,
               1329.1657,
               1349.497,
               1369.8283,
               1390.1596,
               1410.4909,
               1430.8222,
               1451.1535,
               1471.4848,
               1491.8162,
               1512.1475,
               1532.4788,
               1552.8101,
               1573.1414,
               1593.4727,
               1613.804,
               1634.1354,
               1654.4667,
               1674.798,
               1695.1293,
               1715.4606,
               1735.7919,
               1756.1232,
               1776.4545,
               1796.7859,
               1817.1172,
               1837.4485,
               1857.7798,
               1878.1111,
               1898.4424,
               1918.7737,
               1939.1051,
               1959.4364,
               1979.7677,
               2000.099,
               2020.4303,
               2040.7616,
               2061.0929,
               2081.4242,
               2101.7556,
               2122.0869,
               2142.4182,
               2162.7495,
               2183.0808,
               2203.4121,
               2223.7434,
               2244.0747,
               2264.4061,
               2284.7374,
               2305.0687,
               2325.4
            ],
            "n": [
               1.5486,
               1.543006,
               1.538491,
               1.534786,
               1.531685,
               1.529055,
               1.526804,
               1.52487,
               1.523192,
               1.521713,
               1.520404,
               1.51924,
               1.518196,
               1.517255,
               1.516409,
               1.515632,
               1.514916,
               1.51426,
               1.513654,
               1.513091,
               1.512565,
               1.512071,
               1.511608,
               1.511171,
               1.510758,
               1.510366,
               1.509993,
               1.509636,
               1.509291,
               1.50896,
               1.508639,
               1.508329,
               1.508028,
               1.507736,
               1.50745,
               1.507171,
               1.506896,
               1.506626,
               1.506359,
               1.506095,
               1.505834,
               1.505576,
               1.50532,
               1.505067,
               1.504815,
               1.504566,
               1.504317,
               1.50407,
               1.503825,
               1.50358,
               1.503335,
               1.503091,
               1.502847,
               1.502603,
               1.502359,
               1.502114,
               1.501869,
               1.501622,
               1.501374,
               1.501125,
               1.500874,
               1.500622,
               1.500367,
               1.50011,
               1.499852,
               1.499591,
               1.499328,
               1.499064,
               1.498797,
               1.498527,
               1.498256,
               1.497982,
               1.497706,
               1.497427,
               1.497146,
               1.496863,
               1.496577,
               1.496288,
               1.495997,
               1.495704,
               1.495407,
               1.495108,
               1.494806,
               1.494501,
               1.494194,
               1.493883,
               1.49357,
               1.493254,
               1.492934,
               1.492612,
               1.492286,
               1.491957,
               1.491626,
               1.49129,
               1.490952,
               1.49061,
               1.490265,
               1.489917,
               1.489565,
               1.48921
            ]
         }
      },
      "TiO2": {
         "Cauchy": [
            2.22539976123885,
            2338.07350315339,
            7687994406.78965
         ]
      },
      "SiO2": {
         "Table": {
            "wavelength": [
               110,
               115,
               120,
               125,
               130,
               135,
               140,
               145,
               150,
               155,
               160,
               165,
               170,
               175,
               180,
               185,
               190,
               195,
               200,
               205,
               210,
               215,
               220,
               225,
               230,
               235,
               240,
               245,
               250,
               255,
               260,
               265,
               270,
               275,
               280,
               285,
               290,
               295,
               300,
               305,
               310,
               315,
               320,
               325,
               330,
               335,
               340,
               345,
               350,
               355,
               360,
               365,
               370,
               375,
               380,
               385,
               390,
               395,
               400,
               405,
               410,
               415,
               420,
               425,
               430,
               435,
               440,
               445,
               450,
               455,
               460,
               465,
               470,
               475,
               480,
               485,
               490,
               495,
               500,
               505,
               510,
               515,
               520,
               525,
               530,
               535,
               540,
               545,
               550,
               555,
               560,
               565,
               570,
               575,
               580,
               585,
               590,
               595,
               600,
               605,
               610,
               615,
               620,
               625,
               630,
               635,
               640,
               645,
               650,
               655,
               660,
               665,
               670,
               675,
               680,
               685,
               690,
               695,
               700,
               705,
               710,
               715,
               720,
               725,
               730,
               735,
               740,
               745,
               750,
               755,
               760,
               765,
               770,
               775,
               780,
               785,
               790,
               795,
               800
            ],
            "n": [
               1.7565,
               1.5603,
               1.9643,
               2.2994,
               2.1088,
               1.964,
               1.8644,
               1.7934,
               1.7412,
               1.702,
               1.6701,
               1.644,
               1.6237,
               1.6069,
               1.5921,
               1.579,
               1.5684,
               1.5595,
               1.5517,
               1.545,
               1.5389,
               1.5332,
               1.5284,
               1.5239,
               1.5203,
               1.5169,
               1.5133,
               1.5105,
               1.5077,
               1.505,
               1.5023,
               1.5001,
               1.498,
               1.496,
               1.4942,
               1.4926,
               1.4908,
               1.4895,
               1.488,
               1.4866,
               1.4854,
               1.4841,
               1.4827,
               1.4815,
               1.4806,
               1.4794,
               1.4787,
               1.478,
               1.4772,
               1.4763,
               1.4754,
               1.4747,
               1.4741,
               1.4734,
               1.4727,
               1.472,
               1.4714,
               1.4707,
               1.4701,
               1.4696,
               1.469,
               1.4684,
               1.468,
               1.4676,
               1.4672,
               1.4668,
               1.4663,
               1.4659,
               1.4655,
               1.4651,
               1.4648,
               1.4645,
               1.4641,
               1.4637,
               1.4635,
               1.4632,
               1.4629,
               1.4627,
               1.4624,
               1.4621,
               1.4618,
               1.4616,
               1.4613,
               1.4611,
               1.4608,
               1.4606,
               1.4603,
               1.4601,
               1.4599,
               1.4597,
               1.4594,
               1.4592,
               1.4591,
               1.4589,
               1.4587,
               1.4586,
               1.4584,
               1.4583,
               1.4581,
               1.458,
               1.4578,
               1.4576,
               1.4574,
               1.4573,
               1.4571,
               1.4569,
               1.4568,
               1.4567,
               1.4565,
               1.4564,
               1.4563,
               1.4562,
               1.456,
               1.456,
               1.4559,
               1.4558,
               1.4557,
               1.4556,
               1.4554,
               1.4552,
               1.4551,
               1.455,
               1.455,
               1.4549,
               1.4548,
               1.4548,
               1.4547,
               1.4546,
               1.4545,
               1.4545,
               1.4544,
               1.4543,
               1.4542,
               1.4541,
               1.454,
               1.4539,
               1.4538,
               1.4537,
               1.4536
            ]
         }
      }
   }
}